SpectraSuite Data File
++++++++++++++++++++++++++++++++++++
Date: Thu Aug 05 09:52:32 EEST 2021
User: CanSEE
Dark Spectrum Present: No
Reference Spectrum Present: No
Number of Sampled Component Spectra: 1
Spectrometers: MAYP112785
Integration Time (usec): 10000 (MAYP112785)
Spectra Averaged: 1 (MAYP112785)
Boxcar Smoothing: 0 (MAYP112785)
Correct for Electrical Dark: No (MAYP112785)
Strobe/Lamp Enabled: No (MAYP112785)
Correct for Detector Non-linearity: No (MAYP112785)
Correct for Stray Light: No (MAYP112785)
Number of Pixels in Processed Spectrum: 2068
>>>>>Begin Processed Spectral Data<<<<<
198.35	3435.00
198.82	2477.00
199.30	2575.00
199.77	2555.00
200.24	2582.00
200.71	2581.00
201.18	2579.00
201.65	2586.00
202.13	2585.00
202.60	2588.00
203.07	2583.00
203.54	2580.00
204.01	2583.00
204.48	2587.00
204.96	2582.00
205.43	2583.00
205.90	2583.00
206.37	2583.00
206.84	2577.00
207.31	2576.00
207.78	2581.00
208.26	2587.00
208.73	2582.00
209.20	2583.00
209.67	2585.00
210.14	2590.00
210.61	2578.00
211.08	2581.00
211.56	2580.00
212.03	2581.00
212.50	2570.00
212.97	2580.00
213.44	2583.00
213.91	2588.00
214.38	2586.00
214.85	2582.00
215.33	2582.00
215.80	2579.00
216.27	2583.00
216.74	2580.00
217.21	2582.00
217.68	2591.00
218.15	2581.00
218.62	2580.00
219.09	2580.00
219.57	2581.00
220.04	2580.00
220.51	2586.00
220.98	2576.00
221.45	2585.00
221.92	2585.00
222.39	2586.00
222.86	2579.00
223.33	2580.00
223.80	2583.00
224.27	2592.00
224.74	2581.00
225.22	2575.00
225.69	2583.00
226.16	2587.00
226.63	2587.00
227.10	2582.00
227.57	2585.00
228.04	2583.00
228.51	2583.00
228.98	2580.00
229.45	2583.00
229.92	2580.00
230.39	2585.00
230.86	2583.00
231.33	2583.00
231.80	2591.00
232.27	2582.00
232.75	2579.00
233.22	2591.00
233.69	2580.00
234.16	2591.00
234.63	2585.00
235.10	2580.00
235.57	2578.00
236.04	2576.00
236.51	2583.00
236.98	2576.00
237.45	2584.00
237.92	2577.00
238.39	2580.00
238.86	2578.00
239.33	2626.00
239.80	2585.00
240.27	2583.00
240.74	2591.00
241.21	2589.00
241.68	2584.00
242.15	2581.00
242.62	2588.00
243.09	2580.00
243.56	2579.00
244.03	2579.00
244.50	2581.00
244.97	2571.00
245.44	2590.00
245.91	2584.00
246.38	2578.00
246.85	2584.00
247.32	2586.00
247.79	2585.00
248.26	2582.00
248.73	2579.00
249.20	2580.00
249.67	2583.00
250.14	2583.00
250.61	2592.00
251.08	2579.00
251.55	2586.00
252.02	2584.00
252.49	2580.00
252.96	2590.00
253.43	2575.00
253.90	2586.00
254.37	2584.00
254.84	2583.00
255.31	2585.00
255.77	2578.00
256.24	2582.00
256.71	2585.00
257.18	2584.00
257.65	2588.00
258.12	2583.00
258.59	2580.00
259.06	2585.00
259.53	2577.00
260.00	2585.00
260.47	2592.00
260.94	2591.00
261.41	2585.00
261.88	2584.00
262.35	2578.00
262.81	2588.00
263.28	2583.00
263.75	2589.00
264.22	2588.00
264.69	2587.00
265.16	2579.00
265.63	2575.00
266.10	2584.00
266.57	2581.00
267.04	2584.00
267.51	2581.00
267.97	2584.00
268.44	2586.00
268.91	2583.00
269.38	2580.00
269.85	2581.00
270.32	2582.00
270.79	2585.00
271.26	2581.00
271.73	2583.00
272.19	2581.00
272.66	2586.00
273.13	2582.00
273.60	2583.00
274.07	2584.00
274.54	2587.00
275.01	2582.00
275.48	2583.00
275.94	2579.00
276.41	2585.00
276.88	2590.00
277.35	2579.00
277.82	2579.00
278.29	2586.00
278.76	2583.00
279.22	2581.00
279.69	2587.00
280.16	2581.00
280.63	2578.00
281.10	2589.00
281.57	2588.00
282.04	2582.00
282.50	2589.00
282.97	2582.00
283.44	2591.00
283.91	2580.00
284.38	2585.00
284.85	2583.00
285.31	2588.00
285.78	2589.00
286.25	2575.00
286.72	2578.00
287.19	2581.00
287.65	2582.00
288.12	2588.00
288.59	2589.00
289.06	2579.00
289.53	2585.00
289.99	2583.00
290.46	2582.00
290.93	2593.00
291.40	2587.00
291.87	2579.00
292.33	2581.00
292.80	2582.00
293.27	2584.00
293.74	2580.00
294.21	2583.00
294.67	2585.00
295.14	2584.00
295.61	2580.00
296.08	2580.00
296.54	2581.00
297.01	2575.00
297.48	2584.00
297.95	2582.00
298.42	2588.00
298.88	2585.00
299.35	2582.00
299.82	2584.00
300.29	2581.00
300.75	2577.00
301.22	2573.00
301.69	2585.00
302.16	2582.00
302.62	2578.00
303.09	2583.00
303.56	2582.00
304.03	2587.00
304.49	2588.00
304.96	2581.00
305.43	2591.00
305.90	2584.00
306.36	2595.00
306.83	2581.00
307.30	2594.00
307.76	2586.00
308.23	2596.00
308.70	2594.00
309.17	2589.00
309.63	2594.00
310.10	2605.00
310.57	2597.00
311.03	2610.00
311.50	2615.00
311.97	2612.00
312.44	2606.00
312.90	2616.00
313.37	2620.00
313.84	2622.00
314.30	2630.00
314.77	2632.00
315.24	2634.00
315.70	2626.00
316.17	2624.00
316.64	2649.00
317.10	2652.00
317.57	2658.00
318.04	2659.00
318.50	2657.00
318.97	2653.00
319.44	2661.00
319.90	2657.00
320.37	2690.00
320.84	2684.00
321.30	2671.00
321.77	2662.00
322.24	2679.00
322.70	2683.00
323.17	2683.00
323.64	2689.00
324.10	2698.00
324.57	2709.00
325.04	2701.00
325.50	2709.00
325.97	2739.00
326.44	2753.00
326.90	2746.00
327.37	2742.00
327.84	2758.00
328.30	2747.00
328.77	2747.00
329.23	2774.00
329.70	2774.00
330.17	2793.00
330.63	2769.00
331.10	2770.00
331.56	2763.00
332.03	2768.00
332.50	2791.00
332.96	2774.00
333.43	2775.00
333.90	2776.00
334.36	2771.00
334.83	2789.00
335.29	2772.00
335.76	2778.00
336.22	2756.00
336.69	2761.00
337.16	2768.00
337.62	2757.00
338.09	2782.00
338.55	2788.00
339.02	2801.00
339.49	2813.00
339.95	2800.00
340.42	2809.00
340.88	2830.00
341.35	2808.00
341.81	2825.00
342.28	2814.00
342.75	2812.00
343.21	2823.00
343.68	2815.00
344.14	2812.00
344.61	2770.00
345.07	2806.00
345.54	2825.00
346.00	2826.00
346.47	2826.00
346.93	2855.00
347.40	2848.00
347.87	2829.00
348.33	2831.00
348.80	2852.00
349.26	2854.00
349.73	2855.00
350.19	2878.00
350.66	2880.00
351.12	2855.00
351.59	2864.00
352.05	2867.00
352.52	2863.00
352.98	2866.00
353.45	2880.00
353.91	2917.00
354.38	2902.00
354.84	2891.00
355.31	2903.00
355.77	2908.00
356.24	2868.00
356.70	2874.00
357.17	2850.00
357.63	2831.00
358.10	2850.00
358.56	2825.00
359.03	2823.00
359.49	2893.00
359.96	2903.00
360.42	2877.00
360.89	2888.00
361.35	2893.00
361.82	2888.00
362.28	2899.00
362.75	2925.00
363.21	2941.00
363.67	2904.00
364.14	2927.00
364.60	2933.00
365.07	2938.00
365.53	2959.00
366.00	3008.00
366.46	3016.00
366.93	2986.00
367.39	2997.00
367.86	2995.00
368.32	2977.00
368.78	2971.00
369.25	2990.00
369.71	3014.00
370.18	3015.00
370.64	3012.00
371.11	2970.00
371.57	2994.00
372.03	3002.00
372.50	2959.00
372.96	2966.00
373.43	2957.00
373.89	2909.00
374.35	2938.00
374.82	2949.00
375.28	2960.00
375.75	3010.00
376.21	3020.00
376.67	3033.00
377.14	3044.00
377.60	3060.00
378.07	3113.00
378.53	3105.00
378.99	3107.00
379.46	3041.00
379.92	3038.00
380.39	3025.00
380.85	3050.00
381.31	3030.00
381.78	2979.00
382.24	2977.00
382.70	2945.00
383.17	2919.00
383.63	2926.00
384.09	2928.00
384.56	2982.00
385.02	3056.00
385.48	3025.00
385.95	3022.00
386.41	3007.00
386.88	3057.00
387.34	3049.00
387.80	3050.00
388.27	3070.00
388.73	3061.00
389.19	3114.00
389.66	3130.00
390.12	3184.00
390.58	3203.00
391.05	3157.00
391.51	3178.00
391.97	3151.00
392.43	3110.00
392.90	3029.00
393.36	2979.00
393.82	2980.00
394.29	3055.00
394.75	3160.00
395.21	3176.00
395.68	3219.00
396.14	3171.00
396.60	3108.00
397.07	3051.00
397.53	3149.00
397.99	3246.00
398.45	3371.00
398.92	3446.00
399.38	3500.00
399.84	3489.00
400.31	3515.00
400.77	3543.00
401.23	3556.00
401.69	3557.00
402.16	3589.00
402.62	3560.00
403.08	3562.00
403.54	3588.00
404.01	3553.00
404.47	3567.00
404.93	3527.00
405.39	3542.00
405.86	3537.00
406.32	3549.00
406.78	3542.00
407.24	3557.00
407.71	3586.00
408.17	3602.00
408.63	3626.00
409.09	3635.00
409.56	3638.00
410.02	3657.00
410.48	3602.00
410.94	3627.00
411.40	3664.00
411.87	3708.00
412.33	3745.00
412.79	3732.00
413.25	3686.00
413.71	3703.00
414.18	3675.00
414.64	3753.00
415.10	3752.00
415.56	3753.00
416.02	3718.00
416.49	3764.00
416.95	3739.00
417.41	3726.00
417.87	3732.00
418.33	3711.00
418.80	3697.00
419.26	3749.00
419.72	3736.00
420.18	3779.00
420.64	3823.00
421.10	3773.00
421.57	3819.00
422.03	3799.00
422.49	3763.00
422.95	3752.00
423.41	3756.00
423.87	3809.00
424.34	3812.00
424.80	3809.00
425.26	3831.00
425.72	3754.00
426.18	3809.00
426.64	3764.00
427.10	3782.00
427.57	3731.00
428.03	3776.00
428.49	3751.00
428.95	3714.00
429.41	3645.00
429.87	3598.00
430.33	3619.00
430.79	3607.00
431.26	3628.00
431.72	3785.00
432.18	3906.00
432.64	3927.00
433.10	3893.00
433.56	3922.00
434.02	3890.00
434.48	3875.00
434.94	3925.00
435.40	4014.00
435.87	4009.00
436.33	4022.00
436.79	4092.00
437.25	4020.00
437.71	3984.00
438.17	3958.00
438.63	3958.00
439.09	3931.00
439.55	4000.00
440.01	4054.00
440.47	4051.00
440.93	4095.00
441.39	4145.00
441.85	4192.00
442.32	4184.00
442.78	4206.00
443.24	4184.00
443.70	4222.00
444.16	4194.00
444.62	4225.00
445.08	4232.00
445.54	4234.00
446.00	4251.00
446.46	4212.00
446.92	4253.00
447.38	4263.00
447.84	4326.00
448.30	4370.00
448.76	4299.00
449.22	4394.00
449.68	4321.00
450.14	4432.00
450.60	4432.00
451.06	4481.00
451.52	4438.00
451.98	4355.00
452.44	4359.00
452.90	4374.00
453.36	4387.00
453.82	4331.00
454.28	4406.00
454.74	4406.00
455.20	4434.00
455.66	4508.00
456.12	4463.00
456.58	4490.00
457.04	4484.00
457.50	4533.00
457.96	4503.00
458.42	4439.00
458.88	4437.00
459.34	4455.00
459.80	4533.00
460.26	4496.00
460.72	4559.00
461.18	4571.00
461.64	4535.00
462.10	4583.00
462.55	4627.00
463.01	4630.00
463.47	4591.00
463.93	4520.00
464.39	4520.00
464.85	4560.00
465.31	4535.00
465.77	4546.00
466.23	4590.00
466.69	4533.00
467.15	4529.00
467.61	4564.00
468.07	4598.00
468.52	4659.00
468.98	4562.00
469.44	4537.00
469.90	4545.00
470.36	4519.00
470.82	4536.00
471.28	4596.00
471.74	4628.00
472.20	4678.00
472.66	4739.00
473.11	4695.00
473.57	4673.00
474.03	4639.00
474.49	4666.00
474.95	4655.00
475.41	4656.00
475.87	4677.00
476.33	4599.00
476.78	4669.00
477.24	4684.00
477.70	4761.00
478.16	4781.00
478.62	4767.00
479.08	4711.00
479.54	4796.00
479.99	4760.00
480.45	4735.00
480.91	4745.00
481.37	4728.00
481.83	4827.00
482.29	4813.00
482.74	4781.00
483.20	4738.00
483.66	4753.00
484.12	4738.00
484.58	4718.00
485.04	4654.00
485.49	4617.00
485.95	4515.00
486.41	4499.00
486.87	4487.00
487.33	4667.00
487.78	4684.00
488.24	4734.00
488.70	4716.00
489.16	4768.00
489.62	4766.00
490.07	4828.00
490.53	4809.00
490.99	4759.00
491.45	4738.00
491.90	4697.00
492.36	4729.00
492.82	4765.00
493.28	4798.00
493.74	4829.00
494.19	4864.00
494.65	4813.00
495.11	4848.00
495.57	4859.00
496.02	4852.00
496.48	4880.00
496.94	4892.00
497.40	4835.00
497.85	4837.00
498.31	4814.00
498.77	4788.00
499.23	4816.00
499.68	4821.00
500.14	4815.00
500.60	4776.00
501.06	4762.00
501.51	4762.00
501.97	4714.00
502.43	4820.00
502.88	4765.00
503.34	4782.00
503.80	4831.00
504.26	4808.00
504.71	4803.00
505.17	4870.00
505.63	4889.00
506.08	4974.00
506.54	4935.00
507.00	4837.00
507.45	4813.00
507.91	4862.00
508.37	4890.00
508.82	4849.00
509.28	4909.00
509.74	4923.00
510.19	4898.00
510.65	4925.00
511.11	4929.00
511.56	4955.00
512.02	4943.00
512.48	4946.00
512.93	4901.00
513.39	4850.00
513.85	4920.00
514.30	4876.00
514.76	4878.00
515.22	4918.00
515.67	4837.00
516.13	4802.00
516.59	4791.00
517.04	4716.00
517.50	4617.00
517.95	4727.00
518.41	4782.00
518.87	4815.00
519.32	4838.00
519.78	4896.00
520.24	4892.00
520.69	4965.00
521.15	4939.00
521.60	4967.00
522.06	4963.00
522.52	4946.00
522.97	4954.00
523.43	4978.00
523.88	5041.00
524.34	5037.00
524.80	5085.00
525.25	5014.00
525.71	4961.00
526.16	4941.00
526.62	4912.00
527.07	4878.00
527.53	4885.00
527.99	4973.00
528.44	5052.00
528.90	5090.00
529.35	5135.00
529.81	5095.00
530.26	5059.00
530.72	5163.00
531.17	5124.00
531.63	5136.00
532.09	5071.00
532.54	5066.00
533.00	4974.00
533.45	4984.00
533.91	5079.00
534.36	5087.00
534.82	5094.00
535.27	5148.00
535.73	5133.00
536.18	5130.00
536.64	5103.00
537.09	5080.00
537.55	5085.00
538.00	5051.00
538.46	5179.00
538.91	5052.00
539.37	5062.00
539.82	4983.00
540.28	4962.00
540.73	5070.00
541.19	5037.00
541.64	5106.00
542.10	5115.00
542.55	5073.00
543.01	5136.00
543.46	5069.00
543.92	5138.00
544.37	5153.00
544.83	5097.00
545.28	5176.00
545.74	5162.00
546.19	5136.00
546.64	5189.00
547.10	5171.00
547.55	5106.00
548.01	5139.00
548.46	5176.00
548.92	5253.00
549.37	5202.00
549.83	5181.00
550.28	5206.00
550.73	5197.00
551.19	5166.00
551.64	5247.00
552.10	5198.00
552.55	5181.00
553.00	5245.00
553.46	5185.00
553.91	5192.00
554.37	5197.00
554.82	5191.00
555.28	5191.00
555.73	5210.00
556.18	5126.00
556.64	5156.00
557.09	5203.00
557.54	5161.00
558.00	5073.00
558.45	5103.00
558.91	5108.00
559.36	5050.00
559.81	5125.00
560.27	5140.00
560.72	5157.00
561.17	5208.00
561.63	5148.00
562.08	5207.00
562.54	5131.00
562.99	5218.00
563.44	5183.00
563.90	5220.00
564.35	5180.00
564.80	5175.00
565.26	5144.00
565.71	5179.00
566.16	5100.00
566.62	5156.00
567.07	5175.00
567.52	5143.00
567.98	5222.00
568.43	5154.00
568.88	5147.00
569.34	5109.00
569.79	5095.00
570.24	5160.00
570.69	5066.00
571.15	5097.00
571.60	5111.00
572.05	5212.00
572.51	5202.00
572.96	5173.00
573.41	5168.00
573.86	5234.00
574.32	5127.00
574.77	5201.00
575.22	5147.00
575.68	5155.00
576.13	5162.00
576.58	5185.00
577.03	5154.00
577.49	5135.00
577.94	5149.00
578.39	5153.00
578.84	5167.00
579.30	5173.00
579.75	5179.00
580.20	5238.00
580.65	5213.00
581.11	5182.00
581.56	5284.00
582.01	5223.00
582.46	5212.00
582.92	5266.00
583.37	5308.00
583.82	5283.00
584.27	5292.00
584.72	5317.00
585.18	5254.00
585.63	5284.00
586.08	5222.00
586.53	5256.00
586.98	5263.00
587.44	5301.00
587.89	5236.00
588.34	5124.00
588.79	5008.00
589.24	4952.00
589.70	4924.00
590.15	5024.00
590.60	5103.00
591.05	5176.00
591.50	5201.00
591.96	5117.00
592.41	5197.00
592.86	5154.00
593.31	5191.00
593.76	5212.00
594.21	5169.00
594.66	5183.00
595.12	5096.00
595.57	5178.00
596.02	5244.00
596.47	5188.00
596.92	5185.00
597.37	5199.00
597.82	5103.00
598.28	5177.00
598.73	5206.00
599.18	5223.00
599.63	5145.00
600.08	5144.00
600.53	5198.00
600.98	5187.00
601.43	5231.00
601.88	5204.00
602.34	5216.00
602.79	5208.00
603.24	5237.00
603.69	5236.00
604.14	5283.00
604.59	5243.00
605.04	5288.00
605.49	5236.00
605.94	5311.00
606.39	5322.00
606.84	5215.00
607.30	5271.00
607.75	5293.00
608.20	5206.00
608.65	5198.00
609.10	5238.00
609.55	5269.00
610.00	5212.00
610.45	5231.00
610.90	5268.00
611.35	5275.00
611.80	5230.00
612.25	5251.00
612.70	5260.00
613.15	5231.00
613.60	5208.00
614.05	5205.00
614.50	5227.00
614.95	5227.00
615.40	5261.00
615.85	5181.00
616.30	5183.00
616.75	5157.00
617.20	5115.00
617.65	5233.00
618.10	5306.00
618.55	5275.00
619.00	5250.00
619.45	5295.00
619.90	5282.00
620.35	5270.00
620.80	5207.00
621.25	5234.00
621.70	5263.00
622.15	5276.00
622.60	5265.00
623.05	5261.00
623.50	5226.00
623.95	5166.00
624.40	5269.00
624.85	5241.00
625.30	5159.00
625.75	5182.00
626.20	5147.00
626.65	5156.00
627.10	5239.00
627.55	5152.00
627.99	5079.00
628.44	5135.00
628.89	5129.00
629.34	5155.00
629.79	5167.00
630.24	5109.00
630.69	5201.00
631.14	5182.00
631.59	5171.00
632.04	5215.00
632.49	5205.00
632.94	5247.00
633.38	5266.00
633.83	5296.00
634.28	5210.00
634.73	5254.00
635.18	5210.00
635.63	5277.00
636.08	5239.00
636.53	5231.00
636.97	5265.00
637.42	5283.00
637.87	5295.00
638.32	5366.00
638.77	5309.00
639.22	5300.00
639.67	5261.00
640.11	5286.00
640.56	5254.00
641.01	5246.00
641.46	5258.00
641.91	5285.00
642.36	5279.00
642.81	5267.00
643.25	5316.00
643.70	5281.00
644.15	5307.00
644.60	5301.00
645.05	5294.00
645.49	5306.00
645.94	5236.00
646.39	5234.00
646.84	5206.00
647.29	5183.00
647.73	5235.00
648.18	5187.00
648.63	5191.00
649.08	5241.00
649.53	5149.00
649.97	5181.00
650.42	5223.00
650.87	5292.00
651.32	5284.00
651.77	5250.00
652.21	5234.00
652.66	5233.00
653.11	5241.00
653.56	5287.00
654.00	5258.00
654.45	5302.00
654.90	5190.00
655.35	5083.00
655.79	4975.00
656.24	4880.00
656.69	4867.00
657.14	4946.00
657.58	5129.00
658.03	5214.00
658.48	5198.00
658.92	5222.00
659.37	5259.00
659.82	5283.00
660.27	5266.00
660.71	5298.00
661.16	5306.00
661.61	5307.00
662.05	5321.00
662.50	5294.00
662.95	5299.00
663.39	5270.00
663.84	5263.00
664.29	5285.00
664.74	5308.00
665.18	5293.00
665.63	5326.00
666.08	5266.00
666.52	5275.00
666.97	5282.00
667.42	5324.00
667.86	5340.00
668.31	5303.00
668.76	5356.00
669.20	5342.00
669.65	5287.00
670.09	5290.00
670.54	5323.00
670.99	5261.00
671.43	5249.00
671.88	5246.00
672.33	5205.00
672.77	5264.00
673.22	5277.00
673.66	5242.00
674.11	5298.00
674.56	5293.00
675.00	5282.00
675.45	5319.00
675.90	5254.00
676.34	5192.00
676.79	5230.00
677.23	5252.00
677.68	5202.00
678.12	5234.00
678.57	5243.00
679.02	5253.00
679.46	5272.00
679.91	5237.00
680.35	5277.00
680.80	5260.00
681.25	5250.00
681.69	5313.00
682.14	5259.00
682.58	5212.00
683.03	5212.00
683.47	5235.00
683.92	5141.00
684.36	5175.00
684.81	5205.00
685.25	5163.00
685.70	5169.00
686.15	5106.00
686.59	4887.00
687.04	4561.00
687.48	4417.00
687.93	4493.00
688.37	4642.00
688.82	4740.00
689.26	4784.00
689.71	4708.00
690.15	4798.00
690.60	4822.00
691.04	4919.00
691.49	4921.00
691.93	5000.00
692.38	4971.00
692.82	4988.00
693.27	4955.00
693.71	4947.00
694.16	4890.00
694.60	4941.00
695.04	4881.00
695.49	4911.00
695.93	4942.00
696.38	4982.00
696.82	5095.00
697.27	5078.00
697.71	5066.00
698.16	5012.00
698.60	5006.00
699.04	4937.00
699.49	4958.00
699.93	4951.00
700.38	4975.00
700.82	4967.00
701.27	4947.00
701.71	4918.00
702.15	4907.00
702.60	4936.00
703.04	4962.00
703.49	5007.00
703.93	4968.00
704.37	5016.00
704.82	5028.00
705.26	5024.00
705.71	5031.00
706.15	5044.00
706.59	4975.00
707.04	4990.00
707.48	4991.00
707.93	5056.00
708.37	5030.00
708.81	5023.00
709.26	5015.00
709.70	5048.00
710.14	4993.00
710.59	5053.00
711.03	5058.00
711.47	5033.00
711.92	4994.00
712.36	5024.00
712.80	5001.00
713.25	5033.00
713.69	4965.00
714.13	5032.00
714.58	4961.00
715.02	4934.00
715.46	4889.00
715.91	4945.00
716.35	4840.00
716.79	4624.00
717.24	4547.00
717.68	4405.00
718.12	4386.00
718.57	4319.00
719.01	4334.00
719.45	4202.00
719.89	4300.00
720.34	4291.00
720.78	4365.00
721.22	4534.00
721.66	4664.00
722.11	4713.00
722.55	4683.00
722.99	4652.00
723.44	4461.00
723.88	4437.00
724.32	4409.00
724.76	4445.00
725.21	4399.00
725.65	4447.00
726.09	4437.00
726.53	4477.00
726.97	4514.00
727.42	4491.00
727.86	4425.00
728.30	4477.00
728.74	4495.00
729.19	4389.00
729.63	4456.00
730.07	4513.00
730.51	4479.00
730.95	4545.00
731.40	4532.00
731.84	4608.00
732.28	4634.00
732.72	4691.00
733.16	4682.00
733.61	4738.00
734.05	4807.00
734.49	4780.00
734.93	4751.00
735.37	4757.00
735.81	4798.00
736.26	4702.00
736.70	4740.00
737.14	4767.00
737.58	4711.00
738.02	4757.00
738.46	4757.00
738.90	4656.00
739.35	4714.00
739.79	4709.00
740.23	4757.00
740.67	4747.00
741.11	4771.00
741.55	4698.00
741.99	4731.00
742.44	4756.00
742.88	4780.00
743.32	4757.00
743.76	4800.00
744.20	4770.00
744.64	4720.00
745.08	4787.00
745.52	4787.00
745.96	4773.00
746.40	4791.00
746.84	4825.00
747.29	4805.00
747.73	4850.00
748.17	4776.00
748.61	4816.00
749.05	4824.00
749.49	4813.00
749.93	4810.00
750.37	4782.00
750.81	4851.00
751.25	4859.00
751.69	4820.00
752.13	4747.00
752.57	4822.00
753.01	4772.00
753.45	4762.00
753.89	4786.00
754.33	4779.00
754.77	4819.00
755.21	4815.00
755.65	4843.00
756.09	4806.00
756.53	4759.00
756.97	4752.00
757.41	4773.00
757.85	4732.00
758.29	4725.00
758.73	4715.00
759.17	4466.00
759.61	3892.00
760.05	3347.00
760.49	3005.00
760.93	2931.00
761.37	3105.00
761.81	3498.00
762.25	3632.00
762.69	3478.00
763.13	3344.00
763.57	3366.00
764.01	3444.00
764.45	3571.00
764.89	3710.00
765.33	3809.00
765.77	3979.00
766.21	4100.00
766.65	4273.00
767.09	4377.00
767.53	4449.00
767.96	4522.00
768.40	4572.00
768.84	4596.00
769.28	4620.00
769.72	4595.00
770.16	4687.00
770.60	4670.00
771.04	4672.00
771.48	4711.00
771.92	4674.00
772.35	4692.00
772.79	4718.00
773.23	4688.00
773.67	4635.00
774.11	4656.00
774.55	4601.00
774.99	4596.00
775.43	4609.00
775.86	4645.00
776.30	4604.00
776.74	4703.00
777.18	4626.00
777.62	4683.00
778.06	4671.00
778.50	4662.00
778.93	4615.00
779.37	4596.00
779.81	4600.00
780.25	4605.00
780.69	4617.00
781.12	4549.00
781.56	4651.00
782.00	4625.00
782.44	4607.00
782.88	4603.00
783.32	4620.00
783.75	4608.00
784.19	4589.00
784.63	4626.00
785.07	4615.00
785.50	4580.00
785.94	4548.00
786.38	4530.00
786.82	4546.00
787.26	4553.00
787.69	4552.00
788.13	4525.00
788.57	4561.00
789.01	4513.00
789.44	4476.00
789.88	4430.00
790.32	4473.00
790.76	4438.00
791.19	4431.00
791.63	4368.00
792.07	4410.00
792.51	4456.00
792.94	4390.00
793.38	4406.00
793.82	4460.00
794.25	4444.00
794.69	4380.00
795.13	4439.00
795.56	4398.00
796.00	4350.00
796.44	4340.00
796.88	4382.00
797.31	4378.00
797.75	4407.00
798.19	4389.00
798.62	4358.00
799.06	4384.00
799.50	4410.00
799.93	4341.00
800.37	4362.00
800.81	4362.00
801.24	4322.00
801.68	4378.00
802.12	4327.00
802.55	4331.00
802.99	4319.00
803.43	4290.00
803.86	4320.00
804.30	4320.00
804.73	4229.00
805.17	4321.00
805.61	4325.00
806.04	4359.00
806.48	4334.00
806.92	4300.00
807.35	4307.00
807.79	4359.00
808.22	4246.00
808.66	4250.00
809.10	4269.00
809.53	4220.00
809.97	4225.00
810.40	4231.00
810.84	4240.00
811.27	4185.00
811.71	4186.00
812.15	4153.00
812.58	4148.00
813.02	4100.00
813.45	3985.00
813.89	4027.00
814.32	3992.00
814.76	3940.00
815.19	3849.00
815.63	3868.00
816.07	3868.00
816.50	3744.00
816.94	3768.00
817.37	3838.00
817.81	3790.00
818.24	3783.00
818.68	3890.00
819.11	3913.00
819.55	3877.00
819.98	3881.00
820.42	3996.00
820.85	4016.00
821.29	4033.00
821.72	3987.00
822.16	3918.00
822.59	3715.00
823.03	3587.00
823.46	3727.00
823.90	3886.00
824.33	3965.00
824.77	4061.00
825.20	4058.00
825.63	4020.00
826.07	3983.00
826.50	4039.00
826.94	4060.00
827.37	3927.00
827.81	3856.00
828.24	3865.00
828.68	3867.00
829.11	3891.00
829.54	3915.00
829.98	3927.00
830.41	3932.00
830.85	3956.00
831.28	3978.00
831.71	3924.00
832.15	3915.00
832.58	3984.00
833.02	3972.00
833.45	3905.00
833.88	3929.00
834.32	3941.00
834.75	4004.00
835.19	3999.00
835.62	3984.00
836.05	4003.00
836.49	4010.00
836.92	4015.00
837.35	4087.00
837.79	4052.00
838.22	4065.00
838.66	4094.00
839.09	4045.00
839.52	4047.00
839.96	4096.00
840.39	4060.00
840.82	4031.00
841.26	4011.00
841.69	4007.00
842.12	3985.00
842.56	4055.00
842.99	4064.00
843.42	4045.00
843.85	4030.00
844.29	4067.00
844.72	4051.00
845.15	4086.00
845.59	4104.00
846.02	4085.00
846.45	4091.00
846.88	4029.00
847.32	4082.00
847.75	4010.00
848.18	4041.00
848.62	4051.00
849.05	3999.00
849.48	3982.00
849.91	3891.00
850.35	3927.00
850.78	4001.00
851.21	4004.00
851.64	3978.00
852.08	4071.00
852.51	4050.00
852.94	4031.00
853.37	3977.00
853.80	3851.00
854.24	3691.00
854.67	3807.00
855.10	3915.00
855.53	3958.00
855.97	4006.00
856.40	4040.00
856.83	4041.00
857.26	4039.00
857.69	4048.00
858.13	4067.00
858.56	4066.00
858.99	4018.00
859.42	4029.00
859.85	4055.00
860.28	4007.00
860.72	4041.00
861.15	3989.00
861.58	4041.00
862.01	4023.00
862.44	4021.00
862.87	4005.00
863.30	4005.00
863.74	3993.00
864.17	4017.00
864.60	3998.00
865.03	3930.00
865.46	3935.00
865.89	3853.00
866.32	3789.00
866.75	3887.00
867.19	3959.00
867.62	3994.00
868.05	3951.00
868.48	3951.00
868.91	3933.00
869.34	3975.00
869.77	3945.00
870.20	3914.00
870.63	3962.00
871.06	3937.00
871.49	3915.00
871.93	3996.00
872.36	3955.00
872.79	3950.00
873.22	3976.00
873.65	3958.00
874.08	3947.00
874.51	3943.00
874.94	3926.00
875.37	3897.00
875.80	3962.00
876.23	3905.00
876.66	3949.00
877.09	3934.00
877.52	3874.00
877.95	3895.00
878.38	3900.00
878.81	3877.00
879.24	3895.00
879.67	3889.00
880.10	3885.00
880.53	3853.00
880.96	3892.00
881.39	3927.00
881.82	3957.00
882.25	3904.00
882.68	3929.00
883.11	3921.00
883.54	3899.00
883.97	3914.00
884.40	3901.00
884.83	3871.00
885.26	3877.00
885.69	3852.00
886.12	3852.00
886.55	3835.00
886.98	3853.00
887.40	3917.00
887.83	3907.00
888.26	3871.00
888.69	3907.00
889.12	3917.00
889.55	3912.00
889.98	3912.00
890.41	3873.00
890.84	3910.00
891.27	3904.00
891.70	3907.00
892.12	3804.00
892.55	3856.00
892.98	3793.00
893.41	3800.00
893.84	3729.00
894.27	3698.00
894.70	3678.00
895.13	3647.00
895.55	3638.00
895.98	3589.00
896.41	3556.00
896.84	3547.00
897.27	3536.00
897.70	3591.00
898.13	3604.00
898.55	3375.00
898.98	3430.00
899.41	3568.00
899.84	3472.00
900.27	3475.00
900.70	3425.00
901.12	3465.00
901.55	3503.00
901.98	3466.00
902.41	3489.00
902.84	3592.00
903.26	3651.00
903.69	3651.00
904.12	3670.00
904.55	3680.00
904.97	3669.00
905.40	3654.00
905.83	3539.00
906.26	3498.00
906.69	3474.00
907.11	3450.00
907.54	3442.00
907.97	3474.00
908.40	3487.00
908.82	3448.00
909.25	3422.00
909.68	3396.00
910.10	3422.00
910.53	3436.00
910.96	3514.00
911.39	3428.00
911.81	3466.00
912.24	3480.00
912.67	3344.00
913.09	3328.00
913.52	3407.00
913.95	3436.00
914.38	3463.00
914.80	3374.00
915.23	3343.00
915.66	3422.00
916.08	3488.00
916.51	3463.00
916.94	3351.00
917.36	3402.00
917.79	3411.00
918.22	3456.00
918.64	3493.00
919.07	3466.00
919.50	3519.00
919.92	3507.00
920.35	3546.00
920.78	3480.00
921.20	3434.00
921.63	3489.00
922.05	3489.00
922.48	3458.00
922.91	3434.00
923.33	3417.00
923.76	3451.00
924.18	3401.00
924.61	3423.00
925.04	3438.00
925.46	3368.00
925.89	3429.00
926.31	3455.00
926.74	3382.00
927.17	3310.00
927.59	3233.00
928.02	3221.00
928.44	3148.00
928.87	3152.00
929.29	3096.00
929.72	3058.00
930.15	3038.00
930.57	3005.00
931.00	2932.00
931.42	2884.00
931.85	2852.00
932.27	2883.00
932.70	2845.00
933.12	2779.00
933.55	2767.00
933.97	2759.00
934.40	2871.00
934.82	2812.00
935.25	2784.00
935.67	2809.00
936.10	2786.00
936.52	2776.00
936.95	2756.00
937.37	2752.00
937.80	2808.00
938.22	2850.00
938.65	2934.00
939.07	2937.00
939.50	2887.00
939.92	2835.00
940.35	2853.00
940.77	2841.00
941.19	2838.00
941.62	2832.00
942.04	2788.00
942.47	2791.00
942.89	2853.00
943.32	2761.00
943.74	2759.00
944.16	2818.00
944.59	2803.00
945.01	2790.00
945.44	2767.00
945.86	2824.00
946.29	2812.00
946.71	2811.00
947.13	2833.00
947.56	2812.00
947.98	2850.00
948.40	2851.00
948.83	2800.00
949.25	2756.00
949.68	2848.00
950.10	2902.00
950.52	2949.00
950.95	2863.00
951.37	2798.00
951.79	2819.00
952.22	2853.00
952.64	2875.00
953.06	2911.00
953.49	2880.00
953.91	2862.00
954.33	2881.00
954.76	2871.00
955.18	2902.00
955.60	2886.00
956.03	2879.00
956.45	2915.00
956.87	3005.00
957.30	2951.00
957.72	2956.00
958.14	2884.00
958.56	2887.00
958.99	2917.00
959.41	2968.00
959.83	2951.00
960.26	2988.00
960.68	3003.00
961.10	3012.00
961.52	2957.00
961.95	3018.00
962.37	3063.00
962.79	3029.00
963.21	3018.00
963.64	3020.00
964.06	3074.00
964.48	3078.00
964.90	3060.00
965.32	3036.00
965.75	3050.00
966.17	3072.00
966.59	3155.00
967.01	3161.00
967.44	3140.00
967.86	3170.00
968.28	3203.00
968.70	3169.00
969.12	3198.00
969.54	3188.00
969.97	3204.00
970.39	3186.00
970.81	3208.00
971.23	3201.00
971.65	3162.00
972.07	3160.00
972.50	3153.00
972.92	3101.00
973.34	3136.00
973.76	3141.00
974.18	3142.00
974.60	3112.00
975.02	3127.00
975.45	3121.00
975.87	3159.00
976.29	3182.00
976.71	3143.00
977.13	3134.00
977.55	3132.00
977.97	3153.00
978.39	3128.00
978.81	3182.00
979.24	3141.00
979.66	3174.00
980.08	3210.00
980.50	3208.00
980.92	3200.00
981.34	3179.00
981.76	3210.00
982.18	3175.00
982.60	3212.00
983.02	3209.00
983.44	3178.00
983.86	3178.00
984.28	3182.00
984.70	3213.00
985.12	3181.00
985.54	3235.00
985.96	3189.00
986.38	3179.00
986.80	3200.00
987.23	3176.00
987.65	3190.00
988.07	3219.00
988.49	3206.00
988.91	3199.00
989.33	3198.00
989.74	3180.00
990.16	3170.00
990.58	3194.00
991.00	3166.00
991.42	3190.00
991.84	3175.00
992.26	3203.00
992.68	3172.00
993.10	3190.00
993.52	3189.00
993.94	3183.00
994.36	3192.00
994.78	3183.00
995.20	3181.00
995.62	3173.00
996.04	3166.00
996.46	3163.00
996.88	3176.00
997.30	3185.00
997.71	3175.00
998.13	3208.00
998.55	3182.00
998.97	3163.00
999.39	3179.00
999.81	3168.00
1000.23	3185.00
1000.65	3210.00
1001.07	3156.00
1001.49	3210.00
1001.90	3194.00
1002.32	3178.00
1002.74	3181.00
1003.16	3199.00
1003.58	3143.00
1004.00	3153.00
1004.42	3159.00
1004.83	3162.00
1005.25	3137.00
1005.67	3176.00
1006.09	3180.00
1006.51	3123.00
1006.92	3129.00
1007.34	3140.00
1007.76	3119.00
1008.18	3157.00
1008.60	3153.00
1009.02	3135.00
1009.43	3155.00
1009.85	3157.00
1010.27	3139.00
1010.69	3139.00
1011.10	3117.00
1011.52	3138.00
1011.94	3115.00
1012.36	3122.00
1012.78	3121.00
1013.19	3110.00
1013.61	3110.00
1014.03	3095.00
1014.45	3110.00
1014.86	3090.00
1015.28	3066.00
1015.70	3075.00
1016.12	3056.00
1016.53	3055.00
1016.95	3046.00
1017.37	3066.00
1017.78	3052.00
1018.20	3038.00
1018.62	3051.00
1019.03	3047.00
1019.45	3024.00
1019.87	3031.00
1020.29	3035.00
1020.70	3044.00
1021.12	3038.00
1021.54	3013.00
1021.95	3017.00
1022.37	3001.00
1022.79	3017.00
1023.20	3002.00
1023.62	2995.00
1024.04	3008.00
1024.45	2982.00
1024.87	2992.00
1025.28	3001.00
1025.70	2994.00
1026.12	2984.00
1026.53	2975.00
1026.95	2984.00
1027.37	2972.00
1027.78	2945.00
1028.20	2943.00
1028.61	2963.00
1029.03	2949.00
1029.45	2950.00
1029.86	2944.00
1030.28	2926.00
1030.69	2950.00
1031.11	2927.00
1031.53	2914.00
1031.94	2911.00
1032.36	2928.00
1032.77	2907.00
1033.19	2898.00
1033.60	2910.00
1034.02	2902.00
1034.43	2906.00
1034.85	2896.00
1035.27	2887.00
1035.68	2892.00
1036.10	2896.00
1036.51	2865.00
1036.93	2869.00
1037.34	2894.00
1037.76	2877.00
1038.17	2899.00
1038.59	2867.00
1039.00	2873.00
1039.42	2871.00
1039.83	2867.00
1040.25	2861.00
1040.66	2860.00
1041.08	2852.00
1041.49	2846.00
1041.91	2862.00
1042.32	2843.00
1042.73	2810.00
1043.15	2851.00
1043.56	2816.00
1043.98	2840.00
1044.39	2822.00
1044.81	2828.00
1045.22	2824.00
1045.64	2822.00
1046.05	2806.00
1046.46	2818.00
1046.88	2820.00
1047.29	2818.00
1047.71	2814.00
1048.12	2812.00
1048.53	2818.00
1048.95	2794.00
1049.36	2786.00
1049.78	2780.00
1050.19	2777.00
1050.60	2792.00
1051.02	2791.00
1051.43	2791.00
1051.85	2785.00
1052.26	2775.00
1052.67	2771.00
1053.09	2754.00
1053.50	2758.00
1053.91	2764.00
1054.33	2770.00
1054.74	2759.00
1055.15	2754.00
1055.57	2750.00
1055.98	2759.00
1056.39	2738.00
1056.81	2733.00
1057.22	2737.00
1057.63	2747.00
1058.05	2731.00
1058.46	2726.00
1058.87	2729.00
1059.28	2725.00
1059.70	2730.00
1060.11	2727.00
1060.52	2714.00
1060.94	2716.00
1061.35	2722.00
1061.76	2726.00
1062.17	2715.00
1062.59	2694.00
1063.00	2725.00
1063.41	2706.00
1063.82	2704.00
1064.24	2700.00
1064.65	2714.00
1065.06	2710.00
1065.47	2696.00
1065.89	2690.00
1066.30	2707.00
1066.71	2692.00
1067.12	2699.00
1067.53	2680.00
1067.95	2698.00
1068.36	2681.00
1068.77	2686.00
1069.18	2693.00
1069.59	2685.00
1070.00	2665.00
1070.42	2674.00
1070.83	2673.00
1071.24	2663.00
1071.65	2662.00
1072.06	2677.00
1072.47	2676.00
1072.89	2661.00
1073.30	2674.00
1073.71	2661.00
1074.12	2663.00
1074.53	2658.00
1074.94	2674.00
1075.35	2660.00
1075.77	2668.00
1076.18	2667.00
1076.59	2655.00
1077.00	2649.00
1077.41	2653.00
1077.82	2649.00
1078.23	2646.00
1078.64	2660.00
1079.05	2645.00
1079.46	2646.00
1079.87	2661.00
1080.29	2651.00
1080.70	2651.00
1081.11	2647.00
1081.52	2656.00
1081.93	2642.00
1082.34	2643.00
1082.75	2631.00
1083.16	2639.00
1083.57	2642.00
1083.98	2642.00
1084.39	2629.00
1084.80	2639.00
1085.21	2633.00
1085.62	2630.00
1086.03	2648.00
1086.44	2639.00
1086.85	2629.00
1087.26	2639.00
1087.67	2628.00
1088.08	2631.00
1088.49	2621.00
1088.90	2626.00
1089.31	2624.00
1089.72	2629.00
1090.13	2615.00
1090.54	2623.00
1090.95	2617.00
1091.36	2615.00
1091.77	2621.00
1092.18	2611.00
1092.59	2619.00
1093.00	2615.00
1093.40	2614.00
1093.81	2614.00
1094.22	2606.00
1094.63	2611.00
1095.04	2610.00
1095.45	2607.00
1095.86	2607.00
1096.27	2612.00
1096.68	2614.00
1097.09	2600.00
1097.50	2614.00
1097.90	2606.00
1098.31	2598.00
1098.72	2606.00
1099.13	2593.00
1099.54	2594.00
1099.95	2596.00
1100.36	2596.00
1100.76	2599.00
1101.17	2602.00
1101.58	2592.00
1101.99	2598.00
1102.40	2592.00
1102.81	2592.00
1103.22	2598.00
1103.62	2588.00
1104.03	2587.00
1104.44	2586.00
1104.85	2594.00
1105.26	2591.00
1105.66	2592.00
1106.07	2583.00
1106.48	2598.00
1106.89	2586.00
1107.30	2586.00
1107.70	2588.00
1108.11	2594.00
1108.52	2582.00
1108.93	2585.00
1109.33	2584.00
1109.74	2583.00
1110.15	2582.00
1110.56	2576.00
1110.96	2583.00
1111.37	2586.00
1111.78	2582.00
1112.19	2587.00
1112.59	2584.00
1113.00	2588.00
1113.41	2573.00
1113.81	2584.00
1114.22	2587.00
1114.63	2555.00
1115.03	2560.00
1115.44	2559.00
1115.85	2559.00
>>>>>End Processed Spectral Data<<<<<
